 
# QPROP Version 1.22
# 
# Helice24x15                                                                     
# 
# Speed-400 3321 (6V) direct drive                                                
#   0.48000E-01  motor parameter 1 ,  R  (Ohms) 
#    1.3000      motor parameter 2 ,  Io (Amps) 
#    190.00      motor parameter 3 ,  Kv (rpm/Vo
# 
#   rho =  1.2250     kg/m^3
#   mu  = 0.17800E-04 kg/m-s
#   a   =  340.00     m/s   
# 
#  1         2        3          4          5         6            7         8       9        10        11        12          13        14        15      16          17           18      19
# 
#  V(m/s)    rpm      Dbeta      T(N)       Q(N-m)    Pshaft(W)    Volts     Amps    effmot   effprop   adv       CT          CP        DV(m/s)   eff     Pelec       Pprop        cl_avg  cd_avg
  -20.000   2000.     -4.000   57.48      0.7179       150.3      11.274   15.5832   0.8558  -7.6465  -0.00032  0.8159E-13  0.3371E-17  40.0000  -6.5436   175.7      -1150.       1.4390  0.2278    
  -19.000   2000.     -4.000   56.86      0.7406       155.1      11.296   16.0361   0.8563  -6.9646  -0.00030  0.8071E-13  0.3478E-17  38.0000  -5.9639   181.1      -1080.       1.4433  0.2160    
  -18.000   2000.     -4.000   56.27      0.7667       160.6      11.321   16.5543   0.8568  -6.3081  -0.00028  0.7987E-13  0.3600E-17  36.0000  -5.4048   187.4      -1013.       1.4476  0.2042    
  -17.000   2000.     -4.000   55.72      0.7961       166.7      11.349   17.1404   0.8572  -5.6813  -0.00027  0.7909E-13  0.3739E-17  34.0000  -4.8698   194.5      -947.3       1.4518  0.1926    
  -16.000   2000.     -4.000   55.21      0.8291       173.7      11.381   17.7970   0.8574  -5.0873  -0.00025  0.7837E-13  0.3894E-17  32.0000  -4.3617   202.5      -883.4       1.4559  0.1812    
  -15.000   2000.     -4.000   54.74      0.8658       181.3      11.416   18.5266   0.8574  -4.5283  -0.00024  0.7770E-13  0.4066E-17  30.0000  -3.8825   211.5      -821.1       1.4599  0.1700    
  -14.000   2000.     -4.000   54.31      0.9063       189.8      11.454   19.3322   0.8572  -4.0056  -0.00022  0.7709E-13  0.4256E-17  28.0000  -3.4336   221.4      -760.3       1.4638  0.1590    
  -13.000   2000.     -4.000   46.16       1.305       273.4      11.835   27.2724   0.8470  -2.1949  -0.00021  0.6552E-13  0.6130E-17  26.0000  -1.8590   322.8      -600.1       1.3814  0.6910E-01
  -12.000   2000.     -4.000   45.64       1.313       275.0      11.843   27.4227   0.8467  -1.9920  -0.00019  0.6479E-13  0.6165E-17  24.0000  -1.6866   324.8      -547.7       1.3687  0.6248E-01
  -11.000   2000.     -4.000   45.15       1.330       278.5      11.859   27.7556   0.8461  -1.7834  -0.00017  0.6408E-13  0.6244E-17  22.0000  -1.5089   329.1      -496.6       1.3531  0.5942E-01
  -10.000   2000.     -4.000   44.56       1.340       280.6      11.868   27.9599   0.8457  -1.5878  -0.00016  0.6325E-13  0.6292E-17  20.0000  -1.3428   331.8      -445.6       1.3361  0.5406E-01
   -9.000   2000.     -4.000   43.96       1.357       284.2      11.885   28.3011   0.8450  -1.3921  -0.00014  0.6240E-13  0.6373E-17  18.0000  -1.1763   336.4      -395.7       1.3166  0.5120E-01
   -8.000   2000.     -4.000   43.28       1.369       286.7      11.896   28.5341   0.8446  -1.2079  -0.00013  0.6144E-13  0.6428E-17  16.0000  -1.0201   339.4      -346.3       1.2943  0.4763E-01
   -7.000   2000.     -4.000   42.50       1.380       289.0      11.906   28.7536   0.8441  -1.0296  -0.00011  0.6033E-13  0.6479E-17  14.0000  -0.8691   342.4      -297.5       1.2697  0.4328E-01
   -6.000   2000.     -4.000   41.68       1.391       291.3      11.917   28.9761   0.8437  -0.8584  -0.00009  0.5916E-13  0.6532E-17  12.0000  -0.7242   345.3      -250.1       1.2423  0.3999E-01
   -5.000   2000.     -4.000   40.75       1.403       293.8      11.929   29.2148   0.8432  -0.6935  -0.00008  0.5784E-13  0.6588E-17  10.0000  -0.5847   348.5      -203.8       1.2117  0.3732E-01
   -4.000   2000.     -4.000   39.72       1.410       295.3      11.935   29.3532   0.8429  -0.5381  -0.00006  0.5638E-13  0.6621E-17   8.0000  -0.4535   350.3      -158.9       1.1776  0.3420E-01
   -3.000   2000.     -4.000   38.59       1.415       296.3      11.940   29.4451   0.8427  -0.3907  -0.00005  0.5477E-13  0.6643E-17   6.0000  -0.3293   351.6      -115.8       1.1401  0.3126E-01
   -2.000   2000.     -4.000   37.33       1.416       296.6      11.941   29.4744   0.8426  -0.2518  -0.00003  0.5299E-13  0.6650E-17   4.0001  -0.2122   352.0      -74.67       1.0989  0.2854E-01
   -1.000   2000.     -4.000   35.95       1.413       296.0      11.939   29.4207   0.8428  -0.1215  -0.00002  0.5103E-13  0.6637E-17   2.0001  -0.1024   351.2      -35.95       1.0538  0.2610E-01
    0.000   2000.     -4.000   34.43       1.406       294.4      11.931   29.2667   0.8431   0.0000   0.00000  0.4887E-13  0.6601E-17   0.0140   0.0000   349.2       0.000       1.0045  0.2400E-01
    1.000   2000.     -4.000   32.77       1.392       291.5      11.918   28.9949   0.8436   0.1124   0.00002  0.4651E-13  0.6536E-17   0.0001   0.0948   345.6       32.77       0.9508  0.2224E-01
    2.000   2000.     -4.000   30.95       1.372       287.3      11.899   28.5980   0.8444   0.2154   0.00003  0.4393E-13  0.6443E-17   0.0000   0.1819   340.3       61.90       0.8930  0.2111E-01
    3.000   2000.     -4.000   28.98       1.343       281.3      11.871   28.0245   0.8456   0.3091   0.00005  0.4114E-13  0.6307E-17   0.0000   0.2613   332.7       86.94       0.8306  0.2005E-01
    4.000   2000.     -4.000   26.83       1.305       273.4      11.835   27.2707   0.8470   0.3926   0.00006  0.3808E-13  0.6129E-17   0.0000   0.3325   322.8       107.3       0.7634  0.1982E-01
    5.000   2000.     -4.000   24.54       1.259       263.7      11.791   26.3548   0.8487   0.4652   0.00008  0.3483E-13  0.5913E-17   0.0000   0.3948   310.8       122.7       0.6930  0.2011E-01
    6.000   2000.     -4.000   22.10       1.204       252.2      11.739   25.2581   0.8506   0.5258   0.00009  0.3137E-13  0.5655E-17   0.0000   0.4473   296.5       132.6       0.6196  0.2099E-01
    7.000   2000.     -4.000   19.51       1.139       238.5      11.676   23.9602   0.8526   0.5727   0.00011  0.2770E-13  0.5348E-17   0.0000   0.4883   279.8       136.6       0.5431  0.2255E-01
    8.000   2000.     -4.000   16.79       1.063       222.7      11.604   22.4536   0.8546   0.6031   0.00013  0.2383E-13  0.4993E-17   0.0000   0.5154   260.6       134.3       0.4643  0.2495E-01
    9.000   2000.     -4.000   13.91      0.9754       204.3      11.520   20.7066   0.8564   0.6127   0.00014  0.1974E-13  0.4580E-17   0.0000   0.5247   238.5       125.2       0.3831  0.2812E-01
   10.000   2000.     -4.000   10.86      0.8741       183.1      11.424   18.6916   0.8574   0.5934   0.00016  0.1542E-13  0.4105E-17   0.0000   0.5088   213.5       108.6       0.2995  0.3217E-01
   11.000   2000.     -4.000   7.654      0.7587       158.9      11.313   16.3956   0.8567   0.5299   0.00017  0.1086E-13  0.3563E-17   0.0000   0.4539   185.5       84.20       0.2138  0.3731E-01
   12.000   2000.     -4.000   4.308      0.6286       131.7      11.189   13.8077   0.8522   0.3926   0.00019  0.6114E-14  0.2952E-17   0.0000   0.3346   154.5       51.69       0.1272  0.4325E-01
   13.000   2000.     -4.000  0.7826      0.4821       101.0      11.049   10.8921   0.8390   0.1008   0.00021  0.1111E-14  0.2264E-17   0.0000   0.0845   120.3       10.17       0.0389  0.5042E-01
   14.000   2000.     -4.000  -1.234      0.6262       131.2      11.187   13.7598   0.8521  -0.1318   0.00022 -0.1752E-14  0.2941E-17   0.0000  -0.1123   153.9      -17.28       0.0000  0.8025E-01
   15.000   2000.     -4.000  -1.545      0.7123       149.2      11.269   15.4716   0.8556  -0.1554   0.00024 -0.2193E-14  0.3345E-17   0.0000  -0.1329   174.3      -23.17       0.0000  0.9185E-01
   16.000   2000.     -4.000  -1.923      0.8116       170.0      11.364   17.4485   0.8573  -0.1810   0.00025 -0.2729E-14  0.3811E-17   0.0000  -0.1552   198.3      -30.77       0.0000  0.1052    
   17.000   2000.     -4.000  -2.373      0.9238       193.5      11.471   19.6802   0.8570  -0.2085   0.00027 -0.3368E-14  0.4338E-17   0.0000  -0.1787   225.8      -40.34       0.0000  0.1201    
   18.000   2000.     -4.000  -2.899       1.048       219.5      11.590   22.1564   0.8549  -0.2377   0.00028 -0.4115E-14  0.4922E-17   0.0000  -0.2032   256.8      -52.19       0.0000  0.1365    
   19.000   2000.     -4.000  -3.506       1.184       248.1      11.720   24.8670   0.8512  -0.2685   0.00030 -0.4976E-14  0.5562E-17   0.0000  -0.2286   291.4      -66.61       0.0000  0.1541    
   20.000   2000.     -4.000  -4.196       1.332       279.0      11.861   27.8017   0.8460  -0.3008   0.00032 -0.5956E-14  0.6255E-17   0.0000  -0.2545   329.8      -83.92       0.0000  0.1729    

  -20.000   2000.     -3.000   56.90      0.8841       185.2      11.433   18.8911   0.8573  -6.1457  -0.00032  0.8076E-13  0.4152E-17  40.0000  -5.2689   216.0      -1138.       1.4359  0.2366    
  -19.000   2000.     -3.000   56.30      0.9030       189.1      11.451   19.2661   0.8572  -5.6558  -0.00030  0.7991E-13  0.4240E-17  38.0000  -4.8483   220.6      -1070.       1.4403  0.2245    
  -18.000   2000.     -3.000   55.73      0.9252       193.8      11.472   19.7080   0.8570  -5.1769  -0.00028  0.7910E-13  0.4345E-17  36.0000  -4.4367   226.1      -1003.       1.4448  0.2125    
  -17.000   2000.     -3.000   55.20      0.9509       199.1      11.497   20.2191   0.8567  -4.7119  -0.00027  0.7835E-13  0.4465E-17  34.0000  -4.0368   232.5      -938.4       1.4491  0.2006    
  -16.000   2000.     -3.000   54.71      0.9802       205.3      11.525   20.8021   0.8563  -4.2638  -0.00025  0.7765E-13  0.4603E-17  32.0000  -3.6510   239.7      -875.3       1.4533  0.1889    
  -15.000   2000.     -3.000   54.25       1.013       212.2      11.556   21.4597   0.8557  -3.8348  -0.00024  0.7700E-13  0.4758E-17  30.0000  -3.2814   248.0      -813.8       1.4574  0.1774    
  -14.000   2000.     -3.000   48.99       1.437       301.0      11.961   29.8956   0.8418  -2.2785  -0.00022  0.6953E-13  0.6749E-17  28.0000  -1.9180   357.6      -685.8       1.4393  0.1029    
  -13.000   2000.     -3.000   47.80       1.425       298.4      11.949   29.6487   0.8423  -2.0824  -0.00021  0.6785E-13  0.6691E-17  26.0000  -1.7540   354.3      -621.4       1.4377  0.7549E-01
  -12.000   2000.     -3.000   47.45       1.439       301.3      11.963   29.9221   0.8417  -1.8899  -0.00019  0.6735E-13  0.6755E-17  24.0000  -1.5907   357.9      -569.4       1.4268  0.7121E-01
  -11.000   2000.     -3.000   46.99       1.457       305.1      11.980   30.2876   0.8409  -1.6941  -0.00017  0.6670E-13  0.6842E-17  22.0000  -1.4246   362.8      -516.9       1.4146  0.6609E-01
  -10.000   2000.     -3.000   46.53       1.472       308.2      11.994   30.5785   0.8403  -1.5098  -0.00016  0.6605E-13  0.6910E-17  20.0000  -1.2687   366.8      -465.3       1.3993  0.6202E-01
   -9.000   2000.     -3.000   46.01       1.487       311.4      12.009   30.8812   0.8397  -1.3298  -0.00014  0.6530E-13  0.6982E-17  18.0000  -1.1166   370.8      -414.1       1.3820  0.5794E-01
   -8.000   2000.     -3.000   45.42       1.502       314.6      12.023   31.1870   0.8390  -1.1549  -0.00013  0.6446E-13  0.7054E-17  16.0000  -0.9690   375.0      -363.3       1.3623  0.5388E-01
   -7.000   2000.     -3.000   44.71       1.520       318.4      12.041   31.5509   0.8382  -0.9828  -0.00011  0.6346E-13  0.7140E-17  14.0000  -0.8238   379.9      -313.0       1.3399  0.4975E-01
   -6.000   2000.     -3.000   43.94       1.534       321.2      12.053   31.8136   0.8376  -0.8208  -0.00009  0.6237E-13  0.7202E-17  12.0000  -0.6875   383.5      -263.6       1.3141  0.4589E-01
   -5.000   2000.     -3.000   43.07       1.545       323.7      12.065   32.0492   0.8371  -0.6654  -0.00008  0.6114E-13  0.7257E-17  10.0000  -0.5570   386.7      -215.4       1.2850  0.4211E-01
   -4.000   2000.     -3.000   42.10       1.555       325.7      12.074   32.2449   0.8367  -0.5170  -0.00006  0.5976E-13  0.7303E-17   8.0000  -0.4326   389.3      -168.4       1.2524  0.3844E-01
   -3.000   2000.     -3.000   41.02       1.562       327.2      12.081   32.3867   0.8363  -0.3760  -0.00005  0.5822E-13  0.7337E-17   6.0000  -0.3145   391.3      -123.0       1.2161  0.3495E-01
   -2.000   2000.     -3.000   39.80       1.566       328.0      12.084   32.4601   0.8362  -0.2427  -0.00003  0.5650E-13  0.7354E-17   4.0001  -0.2029   392.3      -79.61       1.1758  0.3169E-01
   -1.000   2000.     -3.000   38.46       1.565       327.9      12.084   32.4480   0.8362  -0.1173  -0.00002  0.5459E-13  0.7351E-17   2.0001  -0.0981   392.1      -38.46       1.1314  0.2871E-01
    0.000   2000.     -3.000   36.98       1.559       326.6      12.078   32.3283   0.8365   0.0000   0.00000  0.5248E-13  0.7323E-17   0.0145   0.0000   390.5       0.000       1.0825  0.2607E-01
    1.000   2000.     -3.000   35.34       1.547       324.0      12.066   32.0757   0.8370   0.1091   0.00002  0.5016E-13  0.7264E-17   0.0001   0.0913   387.0       35.34       1.0289  0.2379E-01
    2.000   2000.     -3.000   33.54       1.527       319.8      12.047   31.6848   0.8379   0.2098   0.00003  0.4761E-13  0.7171E-17   0.0000   0.1758   381.7       67.09       0.9709  0.2199E-01
    3.000   2000.     -3.000   31.60       1.500       314.1      12.021   31.1371   0.8391   0.3019   0.00005  0.4486E-13  0.7042E-17   0.0000   0.2533   374.3       94.81       0.9087  0.2057E-01
    4.000   2000.     -3.000   29.48       1.461       306.1      11.984   30.3763   0.8407   0.3852   0.00006  0.4184E-13  0.6862E-17   0.0000   0.3239   364.0       117.9       0.8412  0.1974E-01
    5.000   2000.     -3.000   27.20       1.414       296.2      11.939   29.4388   0.8427   0.4592   0.00008  0.3861E-13  0.6641E-17   0.0000   0.3869   351.5       136.0       0.7701  0.1951E-01
    6.000   2000.     -3.000   24.79       1.358       284.4      11.885   28.3160   0.8450   0.5229   0.00009  0.3518E-13  0.6376E-17   0.0000   0.4419   336.5       148.7       0.6961  0.1984E-01
    7.000   2000.     -3.000   22.22       1.291       270.4      11.822   26.9897   0.8475   0.5753   0.00011  0.3154E-13  0.6063E-17   0.0000   0.4876   319.1       155.6       0.6191  0.2082E-01
    8.000   2000.     -3.000   19.52       1.214       254.2      11.748   25.4487   0.8502   0.6143   0.00013  0.2771E-13  0.5699E-17   0.0000   0.5223   299.0       156.2       0.5396  0.2262E-01
    9.000   2000.     -3.000   16.68       1.124       235.5      11.663   23.6716   0.8530   0.6374   0.00014  0.2367E-13  0.5280E-17   0.0000   0.5437   276.1       150.1       0.4581  0.2515E-01
   10.000   2000.     -3.000   13.68       1.022       214.0      11.564   21.6272   0.8555   0.6392   0.00016  0.1941E-13  0.4798E-17   0.0000   0.5468   250.1       136.8       0.3741  0.2856E-01
   11.000   2000.     -3.000   10.51      0.9042       189.4      11.452   19.2902   0.8572   0.6106   0.00017  0.1492E-13  0.4246E-17   0.0000   0.5235   220.9       115.6       0.2881  0.3288E-01
   12.000   2000.     -3.000   7.208      0.7726       161.8      11.327   16.6731   0.8569   0.5345   0.00019  0.1023E-13  0.3628E-17   0.0000   0.4580   188.9       86.49       0.2010  0.3831E-01
   13.000   2000.     -3.000   3.748      0.6242       130.7      11.185   13.7203   0.8519   0.3727   0.00021  0.5320E-14  0.2931E-17   0.0000   0.3175   153.5       48.72       0.1127  0.4453E-01
   14.000   2000.     -3.000  0.1060      0.4697       98.37      11.037   10.6454   0.8372   0.0151   0.00022  0.1505E-15  0.2206E-17   0.0000   0.0126   117.5       1.484       0.0243  0.5420E-01
   15.000   2000.     -3.000  -1.395      0.6406       134.2      11.201   14.0459   0.8528  -0.1559   0.00024 -0.1979E-14  0.3008E-17   0.0000  -0.1330   157.3      -20.92       0.0000  0.8272E-01
   16.000   2000.     -3.000  -1.734      0.7284       152.6      11.284   15.7931   0.8560  -0.1819   0.00025 -0.2461E-14  0.3421E-17   0.0000  -0.1557   178.2      -27.75       0.0000  0.9461E-01
   17.000   2000.     -3.000  -2.143      0.8291       173.7      11.381   17.7972   0.8574  -0.2098   0.00027 -0.3041E-14  0.3894E-17   0.0000  -0.1798   202.5      -36.42       0.0000  0.1081    
   18.000   2000.     -3.000  -2.624      0.9423       197.3      11.489   20.0482   0.8568  -0.2394   0.00028 -0.3725E-14  0.4425E-17   0.0000  -0.2051   230.3      -47.24       0.0000  0.1231    
   19.000   2000.     -3.000  -3.183       1.067       223.5      11.608   22.5359   0.8545  -0.2706   0.00030 -0.4518E-14  0.5012E-17   0.0000  -0.2312   261.6      -60.48       0.0000  0.1395    
   20.000   2000.     -3.000  -3.822       1.204       252.1      11.738   25.2504   0.8506  -0.3032   0.00032 -0.5425E-14  0.5653E-17   0.0000  -0.2579   296.4      -76.45       0.0000  0.1570    

  -20.000   2000.     -2.000   56.30       1.050       219.8      11.591   22.1817   0.8549  -5.1225  -0.00032  0.7991E-13  0.4928E-17  40.0000  -4.3793   257.1      -1126.       1.4326  0.2456    
  -19.000   2000.     -2.000   55.71       1.065       223.0      11.605   22.4813   0.8546  -4.7477  -0.00030  0.7908E-13  0.4999E-17  38.0000  -4.0573   260.9      -1059.       1.4373  0.2332    
  -18.000   2000.     -2.000   55.17       1.083       226.8      11.623   22.8491   0.8541  -4.3776  -0.00028  0.7830E-13  0.5086E-17  36.0000  -3.7390   265.6      -993.0       1.4418  0.2210    
  -17.000   2000.     -2.000   54.65       1.105       231.4      11.644   23.2875   0.8535  -4.0144  -0.00027  0.7758E-13  0.5189E-17  34.0000  -3.4264   271.2      -929.1       1.4462  0.2088    
  -16.000   2000.     -2.000   54.18       1.131       236.8      11.669   23.7993   0.8528  -3.6603  -0.00025  0.7690E-13  0.5310E-17  32.0000  -3.1216   277.7      -866.9       1.4506  0.1969    
  -15.000   2000.     -2.000   51.72       1.518       318.0      12.039   31.5053   0.8383  -2.4402  -0.00024  0.7342E-13  0.7129E-17  30.0000  -2.0456   379.3      -775.9       1.4613  0.1554    
  -14.000   2000.     -2.000   49.18       1.543       323.1      12.062   31.9914   0.8372  -2.1313  -0.00022  0.6981E-13  0.7244E-17  28.0000  -1.7844   385.9      -688.6       1.4788  0.9506E-01
  -13.000   2000.     -2.000   48.96       1.554       325.5      12.073   32.2182   0.8367  -1.9555  -0.00021  0.6949E-13  0.7297E-17  26.0000  -1.6362   389.0      -636.4       1.4756  0.8752E-01
  -12.000   2000.     -2.000   48.75       1.571       329.0      12.089   32.5560   0.8360  -1.7781  -0.00019  0.6920E-13  0.7377E-17  24.0000  -1.4865   393.6      -585.0       1.4693  0.8276E-01
  -11.000   2000.     -2.000   48.45       1.587       332.3      12.104   32.8718   0.8353  -1.6036  -0.00017  0.6877E-13  0.7451E-17  22.0000  -1.3394   397.9      -532.9       1.4617  0.7636E-01
  -10.000   2000.     -2.000   48.14       1.606       336.4      12.123   33.2548   0.8344  -1.4311  -0.00016  0.6833E-13  0.7542E-17  20.0000  -1.1941   403.1      -481.4       1.4512  0.7177E-01
   -9.000   2000.     -2.000   47.76       1.626       340.5      12.141   33.6492   0.8335  -1.2623  -0.00014  0.6779E-13  0.7635E-17  18.0000  -1.0521   408.6      -429.8       1.4384  0.6716E-01
   -8.000   2000.     -2.000   47.30       1.646       344.7      12.161   34.0477   0.8326  -1.0978  -0.00013  0.6714E-13  0.7729E-17  16.0000  -0.9140   414.0      -378.4       1.4229  0.6253E-01
   -7.000   2000.     -2.000   46.72       1.659       347.4      12.173   34.3075   0.8320  -0.9413  -0.00011  0.6632E-13  0.7790E-17  14.0000  -0.7831   417.6      -327.0       1.4042  0.5660E-01
